#Wavelength,QE
#Î¼m,none
0.4,0.7
0.405,0.7
0.41,0.7
0.415,0.7
0.42,0.7
0.425,0.7
0.43,0.7
0.435,0.7
0.44,0.7
0.445,0.7
0.45,0.7
0.455,0.7
0.46,0.7
0.465,0.7
0.47,0.7
0.475,0.7
0.48,0.7
0.485,0.7
0.49,0.7
0.495,0.7
0.5,0.7
0.505,0.7
0.51,0.7
0.515,0.7
0.52,0.7
0.525,0.7
0.53,0.7
0.535,0.7
0.54,0.7
0.545,0.7
0.55,0.7
0.555,0.7
0.56,0.7
0.58,0.7
0.6,0.7
0.65,0.7
0.7,0.7
0.75,0.7
0.8,0.7
0.85,0.7
0.9,0.7
0.95,0.7
1,0.7
1.05,0.7
1.1,0.7
1.15,0.7
1.2,0.7
1.25,0.7
1.3,0.7
1.4,0.7
1.5,0.7
1.6,0.7
1.7,0.7
1.8,0.7
1.9,0.7
2,0.7
2.1,0.7
2.2,0.7
2.3,0.7
2.4,0.7
2.5,0.7
2.51256,0.7
2.52525,0.7
2.53807,0.7
2.55102,0.7
2.5641,0.7
2.57732,0.7
2.59067,0.7
2.60417,0.7
2.6178,0.7
2.63158,0.7
2.6455,0.7
2.65957,0.7
2.6738,0.7
2.68817,0.7
2.7027,0.7
2.71739,0.7
2.73224,0.7
2.74725,0.7
2.76243,0.7
2.77778,0.7
2.7933,0.7
2.80899,0.7
2.82486,0.7
2.84091,0.7
2.85714,0.7
2.87356,0.7
2.89017,0.7
2.90698,0.7
2.92398,0.7
2.94118,0.7
2.95858,0.7
2.97619,0.7
2.99401,0.7
3.01205,0.7
3.0303,0.7
3.04878,0.7
3.06748,0.7
3.08642,0.7
3.10559,0.7
3.125,0.7
3.14465,0.7
3.16456,0.7
3.18471,0.7
3.20513,0.7
3.22581,0.7
3.24675,0.7
3.26797,0.7
3.28947,0.7
3.31126,0.7
3.33333,0.7
3.3557,0.7
3.37838,0.7
3.40136,0.7
3.42466,0.7
3.44828,0.7
3.47222,0.7
3.4965,0.7
3.52113,0.7
3.5461,0.7
3.57143,0.7
3.59712,0.7
3.62319,0.7
3.64964,0.7
3.67647,0.7
3.7037,0.7
3.73134,0.7
3.7594,0.7
3.78788,0.7
3.81679,0.7
3.84615,0.7
3.87597,0.7
3.90625,0.7
3.93701,0.7
3.96825,0.7
4,0.7
4.03226,0.7
4.06504,0.7
4.09836,0.7
4.13223,0.7
4.16667,0.7
4.20168,0.7
4.23729,0.7
4.2735,0.7
4.31034,0.7
4.34783,0.7
4.38596,0.7
4.42478,0.7
4.46429,0.7
4.5045,0.7
4.54545,0.7
4.58716,0.7
4.62963,0.7
4.6729,0.7
4.71698,0.7
4.7619,0.7
4.80769,0.7
4.85437,0.7
4.90196,0.7
4.9505,0.7
5,0.7
5.02513,0.7
5.05051,0.7
5.07614,0.7
5.10204,0.7
5.12821,0.7
5.15464,0.7
5.18135,0.7
5.20833,0.7
5.2356,0.7
5.26316,0.7
5.29101,0.7
5.31915,0.7
5.34759,0.7
5.37634,0.7
5.40541,0.7
5.43478,0.7
5.46448,0.7
5.49451,0.7
5.52486,0.7
5.55556,0.7
5.58659,0.7
5.61798,0.7
5.64972,0.7
5.68182,0.7
5.71429,0.7
5.74713,0.7
5.78035,0.7
5.81395,0.7
5.84795,0.7
5.88235,0.7
5.91716,0.7
5.95238,0.7
5.98802,0.7
6.0241,0.7
6.06061,0.7
6.09756,0.7
6.13497,0.7
6.17284,0.7
6.21118,0.7
6.25,0.7
6.28931,0.7
6.32911,0.7
6.36943,0.7
6.41026,0.7
6.45161,0.7
6.49351,0.7
6.53595,0.7
6.57895,0.7
6.62252,0.7
6.66667,0.7
6.71141,0.7
6.75676,0.7
6.80272,0.7
6.84932,0.7
6.89655,0.7
6.94444,0.7
6.99301,0.7
7.04225,0.7
7.0922,0.7
7.14286,0.7
7.19424,0.7
7.24638,0.7
7.29927,0.7
7.35294,0.7
7.40741,0.7
7.46269,0.7
7.5188,0.7
7.57576,0.7
7.63359,0.7
7.69231,0.7
7.75194,0.7
7.8125,0.7
7.87402,0.7
7.93651,0.7
8,0.7
8.06452,0.7
8.13008,0.7
8.19672,0.7
8.26446,0.7
8.33333,0.7
8.40336,0.7
8.47458,0.7
8.54701,0.7
8.62069,0.7
8.69565,0.7
8.77193,0.7
8.84956,0.7
8.92857,0.7
9.00901,0.7
9.09091,0.7
9.17431,0.7
9.25926,0.7
9.34579,0.7
9.43396,0.7
9.52381,0.7
9.61538,0.7
9.70874,0.7
9.80392,0.7
9.90099,0.7
10,0.7
10.10101,0.7
10.20408,0.7
10.30928,0.7
10.41667,0.7
10.52632,0.7
10.6383,0.7
10.75269,0.7
10.86957,0.7
10.98901,0.7
11.11111,0.7
11.23596,0.7
11.36364,0.7
11.49425,0.7
11.62791,0.7
11.76471,0.7
11.90476,0.7
12.04819,0.7
12.19512,0.7
12.34568,0.7
12.5,0.7
12.65823,0.7
12.82051,0.7
12.98701,0.7
13.15789,0.7
13.33333,0.7
13.51351,0.7
13.69863,0.7
13.88889,0.7
14.08451,0.7
14.28571,0.7
14.49275,0.7
14.70588,0.7
14.92537,0.7
15.15152,0.7
15.38462,0.7
15.625,0.7
15.87302,0.7
16.12903,0.7
16.38504,0.7
16.64105,0.7
16.89706,0.7
17.15307,0.7
17.40908,0.7
17.66509,0.7
17.9211,0.7
18.17711,0.7
18.43312,0.7
18.68913,0.7
18.94514,0.7
19.20115,0.7
19.45716,0.7
19.71317,0.7
19.96918,0.7
20.22519,0.7
20.4812,0.7
20.73721,0.7
20.99322,0.7
21.24923,0.7
21.50524,0.7
21.76125,0.7
22.01726,0.7
22.27327,0.7
22.52928,0.7
22.78529,0.7
23.0413,0.7
23.29731,0.7
23.55332,0.7
23.80933,0.7
24.06534,0.7
24.32135,0.7
24.57736,0.7
24.83337,0.7
25.08938,0.7
